wavelength,data
350,-0.016368233
351,-0.016323047
352,-0.016385663
353,-0.016448395
354,-0.016255337
355,-0.016195884
356,-0.016002477
357,-0.016087419
358,-0.015980674
359,-0.015934547
360,-0.015739035
361,-0.015834767
362,-0.01565907
363,-0.015657035
364,-0.01542336
365,-0.015312407
366,-0.015474023
367,-0.01535836
368,-0.014919453
369,-0.014908465
370,-0.014763047
371,-0.014916244
372,-0.014664837
373,-0.014511337
374,-0.014283919
375,-0.014144535
376,-0.014023198
377,-0.013889384
378,-0.014048093
379,-0.013932756
380,-0.013809012
381,-0.013754221
382,-0.013710488
383,-0.013523953
384,-0.013499547
385,-0.013400558
386,-0.013314651
387,-0.013274907
388,-0.013176884
389,-0.013121023
390,-0.013081512
391,-0.012930105
392,-0.01285314
393,-0.012743198
394,-0.012701895
395,-0.012585453
396,-0.01249936
397,-0.012408942
398,-0.012271698
399,-0.012187233
400,-0.01214914
401,-0.012039744
402,-0.011881314
403,-0.011787581
404,-0.011724535
405,-0.011635198
406,-0.011603814
407,-0.011434651
408,-0.011308314
409,-0.01128043
410,-0.011194058
411,-0.011111174
412,-0.01104814
413,-0.010960256
414,-0.010859453
415,-0.010826174
416,-0.010783128
417,-0.010650651
418,-0.010584012
419,-0.010549279
420,-0.010438849
421,-0.01037186
422,-0.010298453
423,-0.010229023
424,-0.010213802
425,-0.010108523
426,-0.01000314
427,-0.0099785
428,-0.009926814
429,-0.009866442
430,-0.009870535
431,-0.009789012
432,-0.009700302
433,-0.009725267
434,-0.00967036
435,-0.009634093
436,-0.009646733
437,-0.009577593
438,-0.0094845
439,-0.009455802
440,-0.009416884
441,-0.009373012
442,-0.009356558
443,-0.009307221
444,-0.00925657
445,-0.009255802
446,-0.009273651
447,-0.009255105
448,-0.009255651
449,-0.009202593
450,-0.009126663
451,-0.009153605
452,-0.009120256
453,-0.009119802
454,-0.009153977
455,-0.009101163
456,-0.009038523
457,-0.009074709
458,-0.009029012
459,-0.009051372
460,-0.009008267
461,-0.008940895
462,-0.008932733
463,-0.008927407
464,-0.008881349
465,-0.008896965
466,-0.008914791
467,-0.008875698
468,-0.008851628
469,-0.008892291
470,-0.008815988
471,-0.00881836
472,-0.008799442
473,-0.008746023
474,-0.008733105
475,-0.008766419
476,-0.008724244
477,-0.008713186
478,-0.008639302
479,-0.00864014
480,-0.008617419
481,-0.008643244
482,-0.008601116
483,-0.008620581
484,-0.00859364
485,-0.008615988
486,-0.008504337
487,-0.008543337
488,-0.008414651
489,-0.008465988
490,-0.008510233
491,-0.008427779
492,-0.008423198
493,-0.008509872
494,-0.008360395
495,-0.008391395
496,-0.008398558
497,-0.008336105
498,-0.008371837
499,-0.008312884
500,-0.008313105
501,-0.008333814
502,-0.008341256
503,-0.008305733
504,-0.008259814
505,-0.008309023
506,-0.008216872
507,-0.008278965
508,-0.008266698
509,-0.008226023
510,-0.008174407
511,-0.008215291
512,-0.008164581
513,-0.008189523
514,-0.008171581
515,-0.00817764
516,-0.008132407
517,-0.008220337
518,-0.008144884
519,-0.00812964
520,-0.008124802
521,-0.008092837
522,-0.008045395
523,-0.008077872
524,-0.008052326
525,-0.008134674
526,-0.008027663
527,-0.00799414
528,-0.007986907
529,-0.008035442
530,-0.007951919
531,-0.007940512
532,-0.007977919
533,-0.007837558
534,-0.007918884
535,-0.008066709
536,-0.007878465
537,-0.007929012
538,-0.007905395
539,-0.00785086
540,-0.00775336
541,-0.007961779
542,-0.007843058
543,-0.007801756
544,-0.007840105
545,-0.007849395
546,-0.007757267
547,-0.007874395
548,-0.007717326
549,-0.007779151
550,-0.007767198
551,-0.007723174
552,-0.007724198
553,-0.007845395
554,-0.007689349
555,-0.007759081
556,-0.007730419
557,-0.00757693
558,-0.007661314
559,-0.007703093
560,-0.00764986
561,-0.007685081
562,-0.007597744
563,-0.007639698
564,-0.007529163
565,-0.007575337
566,-0.00757336
567,-0.007604523
568,-0.007508791
569,-0.007569081
570,-0.00754764
571,-0.007459907
572,-0.007444012
573,-0.007487837
574,-0.00736257
575,-0.007467616
576,-0.007379826
577,-0.007317616
578,-0.007349628
579,-0.007496244
580,-0.007325198
581,-0.007366128
582,-0.007350186
583,-0.00727614
584,-0.007188209
585,-0.007280116
586,-0.007255151
587,-0.007274221
588,-0.007204674
589,-0.007157198
590,-0.007146337
591,-0.007139965
592,-0.007109756
593,-0.007132663
594,-0.007106884
595,-0.007041221
596,-0.007129523
597,-0.007073128
598,-0.006934512
599,-0.007001953
600,-0.006962733
601,-0.006897895
602,-0.006891616
603,-0.006900744
604,-0.006820977
605,-0.006863663
606,-0.006823267
607,-0.006806919
608,-0.006786047
609,-0.006811465
610,-0.006724884
611,-0.006779802
612,-0.006759395
613,-0.006746616
614,-0.006718
615,-0.006703
616,-0.006566453
617,-0.006691802
618,-0.006690047
619,-0.006613535
620,-0.00662036
621,-0.006649977
622,-0.006566651
623,-0.00657093
624,-0.006539744
625,-0.006493709
626,-0.006490477
627,-0.006517802
628,-0.006486605
629,-0.006456872
630,-0.006471198
631,-0.006439581
632,-0.00644507
633,-0.006453244
634,-0.006330849
635,-0.006347395
636,-0.006339198
637,-0.00630786
638,-0.006308035
639,-0.006305291
640,-0.006298233
641,-0.006334872
642,-0.006288
643,-0.006246965
644,-0.006278372
645,-0.006248
646,-0.006194256
647,-0.006212047
648,-0.006180198
649,-0.006183988
650,-0.006137686
651,-0.006100802
652,-0.006115779
653,-0.00615936
654,-0.006098291
655,-0.006035337
656,-0.006043209
657,-0.006024558
658,-0.005978477
659,-0.005993267
660,-0.005902535
661,-0.005842128
662,-0.005847919
663,-0.005867035
664,-0.005892302
665,-0.00587464
666,-0.005780988
667,-0.005782047
668,-0.005807267
669,-0.005798314
670,-0.005696802
671,-0.005654919
672,-0.005692279
673,-0.005698337
674,-0.005760907
675,-0.005761198
676,-0.005680721
677,-0.005696628
678,-0.005667814
679,-0.005601547
680,-0.005613105
681,-0.005616337
682,-0.005606221
683,-0.005558802
684,-0.005575279
685,-0.005569674
686,-0.005562965
687,-0.005526349
688,-0.005488791
689,-0.005541605
690,-0.005470814
691,-0.005412186
692,-0.005455488
693,-0.00538636
694,-0.005301895
695,-0.005300791
696,-0.005241988
697,-0.005226
698,-0.005243465
699,-0.005210744
700,-0.005145395
701,-0.005197186
702,-0.005150058
703,-0.005101907
704,-0.005067651
705,-0.005005465
706,-0.005006919
707,-0.004966221
708,-0.004904733
709,-0.004869988
710,-0.004846453
711,-0.004831314
712,-0.004773581
713,-0.004726209
714,-0.004612349
715,-0.004637093
716,-0.004654488
717,-0.004547058
718,-0.004489477
719,-0.004450616
720,-0.004353558
721,-0.004351919
722,-0.004314814
723,-0.004248267
724,-0.004119233
725,-0.004087023
726,-0.00405807
727,-0.004026535
728,-0.003907686
729,-0.003819093
730,-0.003672314
731,-0.003692267
732,-0.00350593
733,-0.003479965
734,-0.00333364
735,-0.003265802
736,-0.003177488
737,-0.003206163
738,-0.00314314
739,-0.003090849
740,-0.003050767
741,-0.002924605
742,-0.002942023
743,-0.003049116
744,-0.002880442
745,-0.002885314
746,-0.002889895
747,-0.003004814
748,-0.002804837
749,-0.002765558
750,-0.002827174